Wavelength (nm)	n	k
300.000000	0.323545	3.232297	
305.000000	0.342110	3.287730	
310.000000	0.359363	3.342277	
315.000000	0.375187	3.397334	
320.000000	0.389496	3.453953	
325.000000	0.402240	3.512904	
330.000000	0.413819	3.574218	
335.000000	0.425401	3.636834	
340.000000	0.438000	3.699776	
345.000000	0.452389	3.762270	
350.000000	0.469150	3.823712	
355.000000	0.488656	3.883650	
360.000000	0.510413	3.941846	
365.000000	0.533450	3.998196	
370.000000	0.556970	4.052624	
375.000000	0.580327	4.105073	
380.000000	0.603003	4.155507	
385.000000	0.624584	4.203898	
390.000000	0.644776	4.250352	
395.000000	0.663486	4.295508	
400.000000	0.680689	4.340067	
405.000000	0.696368	4.384604	
410.000000	0.710519	4.429589	
415.000000	0.723146	4.475404	
420.000000	0.734267	4.522355	
425.000000	0.743908	4.570679	
430.000000	0.752178	4.620507	
435.000000	0.759647	4.671593	
440.000000	0.766974	4.723587	
445.000000	0.774710	4.776186	
450.000000	0.783311	4.829125	
455.000000	0.793151	4.882179	
460.000000	0.804530	4.935153	
465.000000	0.817688	4.987884	
470.000000	0.832814	5.040233	
475.000000	0.850048	5.092088	
480.000000	0.869411	5.143386	
485.000000	0.890398	5.194216	
490.000000	0.912390	5.244706	
495.000000	0.934853	5.294961	
500.000000	0.957326	5.345064	
505.000000	0.979416	5.395080	
510.000000	1.000786	5.445059	
515.000000	1.021154	5.495039	
520.000000	1.040280	5.545049	
525.000000	1.057966	5.595107	
530.000000	1.074050	5.645228	
535.000000	1.088400	5.695420	
540.000000	1.100914	5.745688	
545.000000	1.111773	5.796005	
550.000000	1.121632	5.846288	
555.000000	1.131119	5.896456	
560.000000	1.140781	5.946441	
565.000000	1.151089	5.996178	
570.000000	1.162451	6.045613	
575.000000	1.175213	6.094702	
580.000000	1.189673	6.143404	
585.000000	1.206079	6.191689	
590.000000	1.224641	6.239532	
595.000000	1.245529	6.286915	
600.000000	1.268885	6.333832	
605.000000	1.294819	6.380277	
610.000000	1.323414	6.426255	
615.000000	1.354735	6.471777	
620.000000	1.388823	6.516859	
625.000000	1.425653	6.561506	
630.000000	1.464786	6.605611	
635.000000	1.505636	6.649021	
640.000000	1.547680	6.691596	
645.000000	1.590454	6.733208	
650.000000	1.633545	6.773741	
655.000000	1.676592	6.813090	
660.000000	1.719273	6.851160	
665.000000	1.761308	6.887860	
670.000000	1.802451	6.923114	
675.000000	1.842486	6.956848	
680.000000	1.881224	6.988998	
685.000000	1.918502	7.019508	
690.000000	1.954177	7.048326	
695.000000	1.988128	7.075407	
700.000000	2.020246	7.100713	
705.000000	2.050440	7.124211	
710.000000	2.078631	7.145871	
715.000000	2.104753	7.165671	
720.000000	2.128746	7.183590	
725.000000	2.150562	7.199615	
730.000000	2.170159	7.213732	
735.000000	2.187501	7.225935	
740.000000	2.202618	7.236334	
745.000000	2.215626	7.245198	
750.000000	2.226638	7.252793	
755.000000	2.235761	7.259365	
760.000000	2.243091	7.265141	
765.000000	2.248719	7.270332	
770.000000	2.252732	7.275136	
775.000000	2.255209	7.279733	
780.000000	2.256226	7.284295	
785.000000	2.255855	7.288977	
790.000000	2.254165	7.293925	
795.000000	2.251222	7.299273	
800.000000	2.247089	7.305148	
805.000000	2.241827	7.311662	
810.000000	2.235494	7.318923	
815.000000	2.228149	7.327028	
820.000000	2.219847	7.336065	
825.000000	2.210643	7.346117	
830.000000	2.200590	7.357257	
835.000000	2.189740	7.369552	
840.000000	2.178145	7.383061	
845.000000	2.165854	7.397840	
850.000000	2.152918	7.413933	
855.000000	2.139385	7.431385	
860.000000	2.125302	7.450229	
865.000000	2.110716	7.470495	
870.000000	2.095674	7.492209	
875.000000	2.080219	7.515391	
880.000000	2.064397	7.540056	
885.000000	2.048251	7.566214	
890.000000	2.031821	7.593872	
895.000000	2.015150	7.623031	
900.000000	1.998284	7.653683	
905.000000	1.981292	7.685787	
910.000000	1.964248	7.719295	
915.000000	1.947216	7.754159	
920.000000	1.930262	7.790330	
925.000000	1.913441	7.827760	
930.000000	1.896808	7.866399	
935.000000	1.880412	7.906199	
940.000000	1.864300	7.947113	
945.000000	1.848512	7.989090	
950.000000	1.833086	8.032085	
955.000000	1.818057	8.076051	
960.000000	1.803455	8.120941	
965.000000	1.789308	8.166710	
970.000000	1.775642	8.213314	
975.000000	1.762477	8.260710	
980.000000	1.749832	8.308854	
985.000000	1.737725	8.357706	
990.000000	1.726170	8.407225	
995.000000	1.715177	8.457371	
1000.000000	1.704757	8.508108	
1005.000000	1.694918	8.559399	
1010.000000	1.685666	8.611206	
1015.000000	1.677005	8.663497	
1020.000000	1.668937	8.716238	
1025.000000	1.661465	8.769398	
1030.000000	1.654588	8.822944	
1035.000000	1.648306	8.876848	
1040.000000	1.642615	8.931082	
1045.000000	1.637513	8.985618	
1050.000000	1.632996	9.040428	
1055.000000	1.629059	9.095491	
1060.000000	1.625696	9.150779	
1065.000000	1.622901	9.206272	
1070.000000	1.620667	9.261948	
1075.000000	1.618987	9.317782	
1080.000000	1.617854	9.373758	
1085.000000	1.617258	9.429856	
1090.000000	1.617191	9.486058	
1095.000000	1.617646	9.542347	
1100.000000	1.618612	9.598704	
1105.000000	1.620080	9.655115	
1110.000000	1.622041	9.711566	
1115.000000	1.624486	9.768043	
1120.000000	1.627404	9.824531	
1125.000000	1.630786	9.881016	
1130.000000	1.634623	9.937488	
1135.000000	1.638904	9.993934	
1140.000000	1.643619	10.050344	
1145.000000	1.648760	10.106709	
1150.000000	1.654315	10.163015	
1155.000000	1.660268	10.219251	
1160.000000	1.666596	10.275391	
1165.000000	1.673274	10.331415	
1170.000000	1.680280	10.387303	
1175.000000	1.687593	10.443040	
1180.000000	1.695193	10.498606	
1185.000000	1.703060	10.553984	
1190.000000	1.711176	10.609161	
1195.000000	1.719524	10.664124	
1200.000000	1.728088	10.718859	
1205.000000	1.736850	10.773353	
1210.000000	1.745797	10.827598	
1215.000000	1.754915	10.881581	
1220.000000	1.764189	10.935294	
1225.000000	1.773607	10.988728	
1230.000000	1.783157	11.041875	
1235.000000	1.792827	11.094728	
1240.000000	1.802607	11.147280	
1245.000000	1.812485	11.199524	
1250.000000	1.822453	11.251456	
1255.000000	1.832501	11.303069	
1260.000000	1.842620	11.354361	
1265.000000	1.852801	11.405325	
1270.000000	1.863037	11.455957	
1275.000000	1.873321	11.506257	
1280.000000	1.883644	11.556220	
1285.000000	1.894000	11.605843	
1290.000000	1.904384	11.655124	
1295.000000	1.914788	11.704061	
1300.000000	1.925207	11.752651	
1305.000000	1.935636	11.800896	
1310.000000	1.946069	11.848791	
1315.000000	1.956503	11.896338	
1320.000000	1.966931	11.943534	
1325.000000	1.977351	11.990380	
1330.000000	1.987757	12.036876	
1335.000000	1.998146	12.083020	
1340.000000	2.008514	12.128814	
1345.000000	2.018858	12.174257	
1350.000000	2.029175	12.219351	
1355.000000	2.039462	12.264095	
1360.000000	2.049715	12.308490	
1365.000000	2.059932	12.352537	
1370.000000	2.070111	12.396237	
1375.000000	2.080249	12.439592	
1380.000000	2.090344	12.482601	
1385.000000	2.100394	12.525267	
1390.000000	2.110396	12.567592	
1395.000000	2.120350	12.609574	
1400.000000	2.130253	12.651219	
1405.000000	2.140104	12.692526	
1410.000000	2.149900	12.733497	
1415.000000	2.159642	12.774134	
1420.000000	2.169327	12.814438	
1425.000000	2.178955	12.854413	
1430.000000	2.188524	12.894058	
1435.000000	2.198033	12.933377	
1440.000000	2.207481	12.972372	
1445.000000	2.216868	13.011044	
1450.000000	2.226192	13.049396	
1455.000000	2.235453	13.087429	
1460.000000	2.244650	13.125145	
1465.000000	2.253782	13.162548	
1470.000000	2.262850	13.199639	
1475.000000	2.271852	13.236420	
1480.000000	2.280788	13.272894	
1485.000000	2.289657	13.309062	
1490.000000	2.298460	13.344928	
1495.000000	2.307196	13.380493	
1500.000000	2.315864	13.415760	
1505.000000	2.324466	13.450730	
1510.000000	2.332999	13.485407	
1515.000000	2.341464	13.519792	
1520.000000	2.349862	13.553888	
1525.000000	2.358191	13.587697	
1530.000000	2.366453	13.621222	
1535.000000	2.374646	13.654465	
1540.000000	2.382771	13.687427	
1545.000000	2.390829	13.720111	
1550.000000	2.398818	13.752521	
1555.000000	2.406739	13.784657	
1560.000000	2.414593	13.816523	
1565.000000	2.422379	13.848120	
1570.000000	2.430097	13.879451	
1575.000000	2.437748	13.910519	
1580.000000	2.445332	13.941324	
1585.000000	2.452849	13.971870	
1590.000000	2.460300	14.002160	
1595.000000	2.467684	14.032195	
1600.000000	2.475001	14.061976	